wavelength       flux
  microns         mJy
      
      0.80013400       1150.9777
      0.80040097       1225.9385
      0.80066800       1222.9656
      0.80093497       1214.1686
      0.80120200       1250.5775
      0.80146903       1229.1919
      0.80173600       1262.7462
      0.80200303       1235.0060
      0.80227000       1236.9365
      0.80253798       1259.4705
      0.80280501       1177.8877
      0.80307299       1179.0381
      0.80334002       1255.3122
      0.80360800       1218.3490
      0.80387598       1259.9280
      0.80414498       1247.7220
      0.80441201       1255.7899
      0.80467999       1210.3625
      0.80494899       1122.0957
      0.80521703       1218.9338
      0.80548501       1251.2824
      0.80575401       1229.1268
      0.80602199       1264.7532
      0.80629098       1244.3104
      0.80655998       1236.1799
      0.80682898       1252.1346
      0.80709797       1214.3457
      0.80736703       1167.1985
      0.80763602       1181.8111
      0.80790502       1253.1657
      0.80817401       1229.9408
      0.80844402       1222.6620
      0.80871302       1185.9055
      0.80898303       1274.9565
      0.80925298       1181.1164
      0.80952299       1148.3524
      0.80979198       1219.2523
      0.81006199       1207.3541
      0.81033200       1237.3105
      0.81060201       1217.2553
      0.81087202       1223.9101
      0.81114298       1204.5815
      0.81141299       1253.1748
      0.81168300       1195.2439
      0.81195402       1211.8436
      0.81222498       1248.6520
      0.81249499       1264.3751
      0.81276602       1224.3139
      0.81303698       1244.3755
      0.81330800       1226.4040
      0.81357902       1276.6844
      0.81384999       1228.0840
      0.81412202       1240.2133
      0.81439298       1243.6145
      0.81466401       1261.4661
      0.81493598       1257.4690
      0.81520802       1182.7667
      0.81547898       1256.2186
      0.81575102       1243.5218
      0.81602299       1274.0270
      0.81629598       1212.6777
      0.81656700       1252.0147
      0.81683898       1267.1511
      0.81711203       1246.8312
      0.81738400       1272.3674
      0.81765699       1243.2911
      0.81792998       1278.1619
      0.81820202       1208.0932
      0.81847501       1205.0809
      0.81874698       1269.4368
      0.81901997       1204.6535
      0.81929302       1315.1983
      0.81956702       1183.5403
      0.81984001       1189.1853
      0.82011300       1234.4489
      0.82038599       1259.0957
      0.82066000       1197.2780
      0.82093298       1226.1036
      0.82120699       1268.7959
      0.82147998       1196.0870
      0.82175398       1261.8942
      0.82202798       1306.5189
      0.82230198       1171.9886
      0.82257599       1279.5076
      0.82284999       1311.0137
      0.82312500       1263.7751
      0.82339901       1209.7484
      0.82367402       1272.9751
      0.82394898       1281.6815
      0.82422298       1265.3136
      0.82449800       1246.6942
      0.82477301       1317.9564
      0.82504803       1252.1537
      0.82532299       1273.3847
      0.82559800       1286.9294
      0.82587302       1268.1088
      0.82614797       1302.1144
      0.82642299       1311.0679
      0.82669902       1290.5325
      0.82697397       1263.6534
      0.82725000       1302.6894
      0.82752699       1260.4676
      0.82780200       1279.8625
      0.82807702       1305.9371
      0.82835299       1289.4398
      0.82862997       1309.6256
      0.82890600       1268.7810
      0.82918298       1293.5145
      0.82945901       1269.1740
      0.82973498       1275.7675
      0.83001202       1251.0508
      0.83028901       1304.0320
      0.83056498       1279.1943
      0.83084202       1218.5937
      0.83111900       1239.0089
      0.83139598       1250.5539
      0.83167398       1289.1014
      0.83195102       1287.2004
      0.83222800       1260.2471
      0.83250499       1303.6406
      0.83278298       1269.6690
      0.83306098       1199.4631
      0.83333802       1228.1387
      0.83361602       1244.5360
      0.83389300       1278.6364
      0.83417100       1270.4483
      0.83444899       1282.2409
      0.83472800       1253.9675
      0.83500600       1215.5935
      0.83528399       1324.9121
      0.83556300       1276.0715
      0.83584100       1310.7542
      0.83612001       1290.0546
      0.83639902       1293.7306
      0.83667803       1180.4880
      0.83695698       1343.7117
      0.83723497       1274.2928
      0.83751500       1308.6434
      0.83779401       1330.0973
      0.83807302       1261.2686
      0.83835298       1258.5635
      0.83863199       1251.1138
      0.83891100       1146.1230
      0.83919102       1265.2340
      0.83947098       1354.6347
      0.83974999       1338.8362
      0.84003001       1256.1296
      0.84030998       1271.0869
      0.84059000       1321.8794
      0.84087002       1327.2026
      0.84115100       1341.3245
      0.84143102       1263.8986
      0.84171200       1342.4976
      0.84199202       1267.4936
      0.84227300       1307.8534
      0.84255397       1268.9330
      0.84283501       1225.1832
      0.84311599       1357.4834
      0.84339702       1339.6766
      0.84367800       1171.1220
      0.84395897       1351.3075
      0.84424001       1246.3835
      0.84452200       1344.7129
      0.84480298       1306.4905
      0.84508502       1327.3088
      0.84536600       1331.9083
      0.84564799       1351.2713
      0.84592998       1306.6268
      0.84621298       1339.6731
      0.84649402       1352.1594
      0.84677601       1309.9875
      0.84705800       1208.5817
      0.84734100       1308.4288
      0.84762299       1375.0043
      0.84790599       1351.3489
      0.84818900       1337.7386
      0.84847099       1311.8318
      0.84875399       1359.4832
      0.84903699       1346.2940
      0.84931999       1362.9101
      0.84960300       1350.6712
      0.84988600       1139.4334
      0.85017002       1131.0384
      0.85045302       1313.9999
      0.85073602       1334.2776
      0.85101998       1372.4959
      0.85130399       1358.9190
      0.85158700       1231.7598
      0.85187101       1293.4706
      0.85215598       1292.4452
      0.85243899       1356.2467
      0.85272300       1351.5740
      0.85300797       1300.8719
      0.85329199       1341.9595
      0.85357702       1352.7821
      0.85386097       1284.5736
      0.85414600       1181.5217
      0.85443097       771.66922
      0.85471499       1179.6964
      0.85500002       1259.6008
      0.85528499       1342.1343
      0.85557002       1375.5742
      0.85585600       1320.9577
      0.85614097       1373.3481
      0.85642600       1354.3328
      0.85671198       1355.3305
      0.85699701       1349.5160
      0.85728300       1371.8739
      0.85756898       1354.0765
      0.85785401       1363.1761
      0.85813999       1392.3959
      0.85842597       1310.0223
      0.85871202       1359.8076
      0.85899901       1369.6241
      0.85928500       1372.4853
      0.85957199       1371.1926
      0.85985798       1362.0012
      0.86014497       1354.3459
      0.86043203       1367.2388
      0.86071801       1334.8529
      0.86100501       1376.9819
      0.86129200       1285.7942
      0.86157900       1386.0267
      0.86186701       1375.5942
      0.86215401       1383.9760
      0.86244100       1328.9702
      0.86272901       1383.3673
      0.86301601       1386.5860
      0.86330402       1383.2636
      0.86359102       1377.6953
      0.86387998       1378.0648
      0.86416698       1376.4249
      0.86445498       1354.1551
      0.86474299       1410.0538
      0.86503202       1325.4181
      0.86532098       1397.0029
      0.86560899       1369.3433
      0.86589700       1372.2933
      0.86618602       1250.2355
      0.86647499       817.68945
      0.86676401       1287.9877
      0.86705297       1358.1638
      0.86734200       1364.3575
      0.86763102       1251.5621
      0.86791998       1384.9452
      0.86820900       1326.4298
      0.86849898       1355.8213
      0.86878800       1382.3762
      0.86907798       1145.3549
      0.86936700       1353.1767
      0.86965698       1383.7190
      0.86994702       1422.2347
      0.87023699       1300.8101
      0.87052798       1384.5421
      0.87081701       1409.8624
      0.87110698       1406.4063
      0.87139797       1312.4063
      0.87168801       1387.0410
      0.87197900       1379.2058
      0.87226897       1405.8670
      0.87256002       1406.2514
      0.87285101       1426.9016
      0.87314200       1367.9979
      0.87343299       1425.6269
      0.87372398       1332.1522
      0.87401497       1387.8612
      0.87430698       1410.7841
      0.87459898       1384.4495
      0.87489003       1400.6712
      0.87518102       1398.7795
      0.87547302       1360.5296
      0.87576598       1432.7142
      0.87605798       1344.6668
      0.87634999       1438.8810
      0.87664098       1373.9661
      0.87693298       1389.1421
      0.87722498       1417.5114
      0.87751800       1330.5587
      0.87781000       1418.3573
      0.87810302       1412.5048
      0.87839597       1441.5196
      0.87868899       1414.5267
      0.87898201       1428.7830
      0.87927502       1381.6855
      0.87956798       1376.7581
      0.87986100       1418.4025
      0.88015401       1436.1115
      0.88044798       1437.4551
      0.88074100       1349.8437
      0.88103402       1230.7613
      0.88132799       1427.5596
      0.88162202       1438.9175
      0.88191599       1444.9900
      0.88220900       1402.3412
      0.88250399       1404.1649
      0.88279802       1314.1875
      0.88309199       1443.1458
      0.88338602       1459.3595
      0.88368100       1418.3005
      0.88397598       1359.5360
      0.88427001       1413.4483
      0.88456500       1439.4775
      0.88485998       1418.7907
      0.88515502       1450.0281
      0.88545001       1454.8483
      0.88574499       1456.9044
      0.88604099       1453.1135
      0.88633603       1429.4785
      0.88663101       1391.8574
      0.88692701       1385.7898
      0.88722199       1429.8085
      0.88751799       1464.4571
      0.88781399       1426.7811
      0.88810998       1408.6391
      0.88840598       1457.8205
      0.88870198       1450.5318
      0.88899899       1464.5719
      0.88929498       1455.8559
      0.88959098       1437.6114
      0.88988698       1458.8662
      0.89018399       1462.7724
      0.89048100       1463.5281
      0.89077801       1469.6735
      0.89107502       1448.5854
      0.89137203       1455.4161
      0.89166898       1471.4908
      0.89196599       1463.8898
      0.89226300       1410.2660
      0.89256102       1424.7603
      0.89285898       1437.9067
      0.89315599       1429.3630
      0.89345300       1424.8122
      0.89375198       1476.6182
      0.89404899       1474.7793
      0.89434701       1472.2473
      0.89464498       1395.1983
      0.89494300       1408.8909
      0.89524198       1453.1656
      0.89554000       1486.9983
      0.89583898       1472.9078
      0.89613801       1470.3760
      0.89643598       1458.4269
      0.89673501       1454.2982
      0.89703399       1436.1518
      0.89733303       1485.7332
      0.89763200       1456.9385
      0.89793098       1409.6075
      0.89823103       1458.9030
      0.89853001       1479.6973
      0.89882898       1455.0131
      0.89912897       1443.4642
      0.89942902       1473.1076
      0.89972800       1456.3267
      0.90002799       1465.8004
      0.90032798       1362.9542
      0.90062898       1487.8902
      0.90092897       1475.1679
      0.90122998       1371.0213
      0.90153003       1387.5836
      0.90183002       1406.2798
      0.90213102       1466.7310
      0.90243101       1428.4747
      0.90273201       1469.3132
      0.90303302       1463.3147
      0.90333402       1475.8185
      0.90363598       1502.9463
      0.90393698       1455.1719
      0.90423799       1503.2405
      0.90453899       1502.2731
      0.90484101       1495.3877
      0.90514201       1498.7909
      0.90544498       1469.3485
      0.90574598       1500.7468
      0.90604699       1486.1282
      0.90635002       1432.7836
      0.90665197       1495.6960
      0.90695399       1493.3787
      0.90725601       1478.1282
      0.90755898       1504.3887
      0.90786099       1505.1668
      0.90816402       1413.3158
      0.90846699       1510.0801
      0.90877002       1478.1902
      0.90907300       1333.3048
      0.90937603       1464.4420
      0.90967900       1446.8238
      0.90998203       1499.2313
      0.91028500       1442.6014
      0.91058898       1468.6063
      0.91089201       1451.1794
      0.91119599       1471.4911
      0.91149998       1450.2349
      0.91180301       1486.8789
      0.91210699       1425.3504
      0.91241097       1512.0881
      0.91271502       1478.3415
      0.91302001       1514.6083
      0.91332400       1509.6404
      0.91362798       1510.5089
      0.91393298       1496.5525
      0.91423798       1426.7384
      0.91454202       1430.9598
      0.91484702       1430.8124
      0.91515201       1437.8749
      0.91545701       1487.7708
      0.91576201       1434.9717
      0.91606802       1468.0958
      0.91637301       1485.9282
      0.91667801       1445.2752
      0.91698402       1388.9437
      0.91728997       1402.0378
      0.91759598       1348.1839
      0.91790098       1454.3798
      0.91820699       1440.1642
      0.91851300       1425.8093
      0.91881901       1459.7558
      0.91912597       1418.4478
      0.91943198       1423.5835
      0.91973901       1462.5120
      0.92004502       1389.7236
      0.92035198       1441.9921
      0.92065901       1426.0253
      0.92096603       1428.0635
      0.92127299       1361.1809
      0.92158002       1405.5256
      0.92188698       1407.2915
      0.92219400       1407.7324
      0.92250198       1521.1928
      0.92280900       1377.3839
      0.92311698       1430.9372
      0.92342401       1390.8934
      0.92373198       1474.8022
      0.92404002       1434.7820
      0.92434800       1406.6982
      0.92465597       1482.6239
      0.92496401       1410.0435
      0.92527300       1452.5122
      0.92558098       1488.6672
      0.92589003       1364.6360
      0.92619801       1385.1725
      0.92650700       1418.5341
      0.92681599       1497.8536
      0.92712498       1508.1090
      0.92743403       1427.9572
      0.92774302       1517.8529
      0.92805201       1443.6825
      0.92836201       1442.6684
      0.92867100       1544.5379
      0.92898101       1427.2490
      0.92929000       1410.3056
      0.92960000       1479.8764
      0.92991000       1412.2640
      0.93022001       1525.5902
      0.93053001       1499.7353
      0.93084002       1427.7793
      0.93115002       1539.1817
      0.93146098       1478.1748
      0.93177098       1513.7496
      0.93208200       1437.2178
      0.93239301       1492.4261
      0.93270302       1493.1669
      0.93301398       1451.9621
      0.93332499       1561.9799
      0.93363601       1447.3688
      0.93394798       1516.3482
      0.93425900       1521.2968
      0.93457001       1509.3366
      0.93488199       1503.4293
      0.93519300       1450.8804
      0.93550599       1536.2392
      0.93581700       1467.2658
      0.93612897       1470.5716
      0.93644100       1455.9738
      0.93675297       1511.4470
      0.93706501       1483.2555
      0.93737799       1495.0537
      0.93769002       1491.8339
      0.93800300       1534.1812
      0.93831599       1460.9972
      0.93862802       1475.0584
      0.93894100       1503.0319
      0.93925399       1514.6573
      0.93956703       1466.2669
      0.93988001       1450.7209
      0.94019401       1525.2045
      0.94050699       1482.7149
      0.94081998       1432.1280
      0.94113398       1512.6545
      0.94144797       1417.1148
      0.94176102       1363.1162
      0.94207501       1477.8586
      0.94238901       1470.9792
      0.94270402       1484.4262
      0.94301802       1535.6039
      0.94333202       1430.5884
      0.94364703       1473.0082
      0.94396198       1465.1063
      0.94427598       1456.2938
      0.94459099       1476.4472
      0.94490600       1451.5497
      0.94522101       1501.8140
      0.94553602       1481.3562
      0.94585103       1499.7656
      0.94616598       1514.7819
      0.94648099       1460.9483
      0.94679701       1527.1026
      0.94711298       1501.9576
      0.94742799       1560.3356
      0.94774401       1526.3229
      0.94805998       1484.8358
      0.94837600       1516.9744
      0.94869298       1507.5805
      0.94900799       1473.6774
      0.94932503       1578.9851
      0.94964099       1495.7840
      0.94995803       1533.1098
      0.95027399       1536.8456
      0.95059103       1496.1341
      0.95090801       1537.9387
      0.95122498       1467.9690
      0.95154202       1533.7982
      0.95185900       1567.0391
      0.95217699       1472.2814
      0.95249403       1593.6454
      0.95281100       1504.6666
      0.95312899       1512.3867
      0.95344698       1598.1412
      0.95376402       1454.4364
      0.95408201       1587.6034
      0.95440000       1557.3246
      0.95471799       1421.0158
      0.95503700       1521.0624
      0.95535499       1526.4915
      0.95567399       1541.2369
      0.95599198       1510.9914
      0.95631099       1533.4768
      0.95662999       1538.0120
      0.95694900       1581.5240
      0.95726800       1490.5139
      0.95758700       1478.9116
      0.95790601       1563.0348
      0.95822501       1523.5466
      0.95854402       1569.1865
      0.95886397       1525.4419
      0.95918298       1563.4228
      0.95950300       1599.0592
      0.95982301       1530.4788
      0.96014398       1483.8037
      0.96046299       1574.3337
      0.96078300       1518.3320
      0.96110302       1518.5068
      0.96142399       1607.6144
      0.96174401       1579.7038
      0.96206498       1567.9042
      0.96238601       1550.6284
      0.96270698       1517.5508
      0.96302801       1547.4844
      0.96334898       1613.7844
      0.96367002       1533.4604
      0.96399099       1440.4971
      0.96431202       1593.0851
      0.96463299       1572.8274
      0.96495599       1486.1533
      0.96527702       1581.2452
      0.96559799       1534.3417
      0.96592098       1548.9264
      0.96624202       1540.4163
      0.96656400       1524.7535
      0.96688598       1576.9228
      0.96720898       1573.1313
      0.96753198       1575.1044
      0.96785402       1467.7483
      0.96817601       1597.4970
      0.96849900       1576.2876
      0.96882200       1592.7313
      0.96914500       1532.7843
      0.96946800       1545.0134
      0.96979100       1588.0633
      0.97011399       1608.9991
      0.97043800       1569.3231
      0.97076100       1497.4753
      0.97108501       1626.5905
      0.97140801       1622.6540
      0.97173202       1573.6563
      0.97205698       1541.3799
      0.97237998       1585.5924
      0.97270399       1612.6257
      0.97302800       1512.7193
      0.97335303       1588.0520
      0.97367698       1563.6743
      0.97400200       1515.2347
      0.97432703       1626.3371
      0.97465199       1521.7645
      0.97497600       1517.1779
      0.97530198       1625.0822
      0.97562701       1582.9500
      0.97595203       1601.4153
      0.97627699       1598.7185
      0.97660202       1548.5783
      0.97692800       1642.8601
      0.97725302       1515.4774
      0.97757900       1614.1100
      0.97790498       1641.7907
      0.97823101       1575.5940
