wavelength       flux
  microns         mJy
      
      0.80013400       17.903934
      0.80040097       18.839772
      0.80066800       18.906762
      0.80093497       18.804999
      0.80120200       19.104350
      0.80146903       18.986036
      0.80173600       19.252812
      0.80200303       19.005419
      0.80227000       19.086567
      0.80253798       19.283762
      0.80280501       18.615570
      0.80307299       18.457996
      0.80334002       19.292686
      0.80360800       18.937487
      0.80387598       19.367713
      0.80414498       19.296515
      0.80441201       19.393309
      0.80467999       18.992893
      0.80494899       17.707504
      0.80521703       19.127994
      0.80548501       19.364707
      0.80575401       19.238810
      0.80602199       19.553136
      0.80629098       19.397437
      0.80655998       19.328588
      0.80682898       19.505205
      0.80709797       19.240365
      0.80736703       18.685096
      0.80763602       18.676831
      0.80790502       19.582688
      0.80817401       19.332676
      0.80844402       19.350151
      0.80871302       18.773630
      0.80898303       19.806195
      0.80925298       19.078662
      0.80952299       18.711506
      0.80979198       19.287980
      0.81006199       19.270018
      0.81033200       19.627318
      0.81060201       19.450661
      0.81087202       19.519592
      0.81114298       19.407566
      0.81141299       19.766810
      0.81168300       19.331537
      0.81195402       19.467959
      0.81222498       19.815747
      0.81249499       19.951657
      0.81276602       19.633515
      0.81303698       19.834658
      0.81330800       19.667359
      0.81357902       20.149985
      0.81384999       19.744248
      0.81412202       19.841069
      0.81439298       19.904203
      0.81466401       20.092323
      0.81493598       20.074464
      0.81520802       19.437079
      0.81547898       20.097085
      0.81575102       19.980654
      0.81602299       20.279477
      0.81629598       19.785475
      0.81656700       20.079298
      0.81683898       20.269313
      0.81711203       20.115018
      0.81738400       20.360831
      0.81765699       20.111472
      0.81792998       20.410914
      0.81820202       19.793843
      0.81847501       19.384870
      0.81874698       20.400796
      0.81901997       19.829617
      0.81929302       20.813220
      0.81956702       19.537986
      0.81984001       19.431697
      0.82011300       20.011279
      0.82038599       20.401234
      0.82066000       19.741616
      0.82093298       20.035407
      0.82120699       20.582380
      0.82147998       19.791471
      0.82175398       20.539932
      0.82202798       20.905615
      0.82230198       19.356634
      0.82257599       20.736048
      0.82284999       21.010833
      0.82312500       20.613266
      0.82339901       19.874551
      0.82367402       20.792149
      0.82394898       20.804238
      0.82422298       20.437002
      0.82449800       20.624584
      0.82477301       21.179225
      0.82504803       20.469201
      0.82532299       20.891753
      0.82559800       21.031467
      0.82587302       20.888981
      0.82614797       21.162998
      0.82642299       21.271353
      0.82669902       21.100097
      0.82697397       20.912535
      0.82725000       21.249137
      0.82752699       20.922944
      0.82780200       21.096289
      0.82807702       21.336163
      0.82835299       21.228830
      0.82862997       21.407551
      0.82890600       21.076980
      0.82918298       21.290626
      0.82945901       20.939403
      0.82973498       21.206883
      0.83001202       21.013728
      0.83028901       21.443867
      0.83056498       21.321780
      0.83084202       20.739111
      0.83111900       20.893585
      0.83139598       21.063234
      0.83167398       21.438253
      0.83195102       21.401382
      0.83222800       21.261753
      0.83250499       21.632163
      0.83278298       21.247417
      0.83306098       20.006774
      0.83333802       20.794829
      0.83361602       21.199066
      0.83389300       21.514855
      0.83417100       21.341447
      0.83444899       21.536347
      0.83472800       21.196224
      0.83500600       20.948979
      0.83528399       21.986189
      0.83556300       21.642529
      0.83584100       21.928001
      0.83612001       21.675925
      0.83639902       21.809653
      0.83667803       20.460095
      0.83695698       22.273682
      0.83723497       21.724566
      0.83751500       22.032969
      0.83779401       22.220083
      0.83807302       21.454305
      0.83835298       21.359225
      0.83863199       21.422508
      0.83891100       19.849039
      0.83919102       21.754821
      0.83947098       22.516241
      0.83974999       22.424132
      0.84003001       21.591157
      0.84030998       21.692696
      0.84059000       22.365513
      0.84087002       22.409679
      0.84115100       22.555045
      0.84143102       21.644564
      0.84171200       22.585078
      0.84199202       21.923017
      0.84227300       22.375413
      0.84255397       21.982569
      0.84283501       21.367715
      0.84311599       22.831744
      0.84339702       22.672038
      0.84367800       20.526495
      0.84395897       22.807485
      0.84424001       21.714840
      0.84452200       22.824281
      0.84480298       22.535533
      0.84508502       22.673676
      0.84536600       22.789919
      0.84564799       22.988464
      0.84592998       22.652243
      0.84621298       22.914954
      0.84649402       23.035596
      0.84677601       22.705396
      0.84705800       21.110056
      0.84734100       22.664326
      0.84762299       23.310320
      0.84790599       23.134197
      0.84818900       23.043703
      0.84847099       22.791956
      0.84875399       23.262522
      0.84903699       23.151770
      0.84931999       23.307565
      0.84960300       23.210852
      0.84988600       20.224640
      0.85017002       19.773099
      0.85045302       22.849480
      0.85073602       23.157748
      0.85101998       23.525856
      0.85130399       23.448631
      0.85158700       21.710064
      0.85187101       22.544859
      0.85215598       22.832083
      0.85243899       23.491023
      0.85272300       23.471375
      0.85300797       22.811956
      0.85329199       23.397513
      0.85357702       23.450114
      0.85386097       22.708931
      0.85414600       21.070617
      0.85443097       13.991298
      0.85471499       20.876229
      0.85500002       22.544064
      0.85528499       23.468334
      0.85557002       23.836309
      0.85585600       23.307156
      0.85614097       23.910867
      0.85642600       23.801527
      0.85671198       23.835762
      0.85699701       23.809993
      0.85728300       24.023106
      0.85756898       23.857377
      0.85785401       23.970934
      0.85813999       24.253497
      0.85842597       23.203203
      0.85871202       24.018929
      0.85899901       24.152197
      0.85928500       24.182695
      0.85957199       24.126577
      0.85985798       24.096571
      0.86014497       23.867631
      0.86043203       24.223580
      0.86071801       23.976357
      0.86100501       24.361520
      0.86129200       23.060388
      0.86157900       24.444316
      0.86186701       24.249644
      0.86215401       24.516608
      0.86244100       23.655165
      0.86272901       24.493010
      0.86301601       24.585517
      0.86330402       24.578905
      0.86359102       24.559829
      0.86387998       24.557864
      0.86416698       24.580446
      0.86445498       24.323296
      0.86474299       24.900138
      0.86503202       24.102417
      0.86532098       24.818728
      0.86560899       24.567587
      0.86589700       24.475822
      0.86618602       22.660541
      0.86647499       15.296433
      0.86676401       23.247652
      0.86705297       24.458703
      0.86734200       24.684750
      0.86763102       22.999130
      0.86791998       24.828796
      0.86820900       24.338618
      0.86849898       24.621450
      0.86878800       25.006078
      0.86907798       21.527573
      0.86936700       24.715137
      0.86965698       25.013737
      0.86994702       25.425606
      0.87023699       24.041087
      0.87052798       25.151660
      0.87081701       25.415982
      0.87110698       25.416748
      0.87139797       24.326491
      0.87168801       25.107300
      0.87197900       25.122848
      0.87226897       25.474429
      0.87256002       25.527255
      0.87285101       25.717560
      0.87314200       25.118678
      0.87343299       25.750381
      0.87372398       24.663336
      0.87401497       25.329865
      0.87430698       25.668294
      0.87459898       25.375903
      0.87489003       25.546578
      0.87518102       25.505135
      0.87547302       25.140793
      0.87576598       25.989837
      0.87605798       24.706353
      0.87634999       26.110416
      0.87664098       25.219578
      0.87693298       25.717945
      0.87722498       25.991518
      0.87751800       24.963239
      0.87781000       26.014585
      0.87810302       26.047964
      0.87839597       26.302255
      0.87868899       26.099106
      0.87898201       26.227644
      0.87927502       25.682887
      0.87956798       25.452244
      0.87986100       26.190856
      0.88015401       26.407826
      0.88044798       26.423947
      0.88074100       25.261200
      0.88103402       23.433201
      0.88132799       26.364685
      0.88162202       26.549990
      0.88191599       26.625150
      0.88220900       26.285617
      0.88250399       26.159663
      0.88279802       24.551530
      0.88309199       26.710483
      0.88338602       26.871884
      0.88368100       26.563830
      0.88397598       25.469624
      0.88427001       26.540559
      0.88456500       26.816044
      0.88485998       26.552255
      0.88515502       26.948959
      0.88545001       27.014307
      0.88574499       27.052367
      0.88604099       27.031289
      0.88633603       26.748562
      0.88663101       26.175839
      0.88692701       26.033886
      0.88722199       26.760125
      0.88751799       27.267747
      0.88781399       26.937840
      0.88810998       26.760217
      0.88840598       27.301366
      0.88870198       27.259546
      0.88899899       27.400350
      0.88929498       27.347737
      0.88959098       27.150660
      0.88988698       27.437268
      0.89018399       27.476794
      0.89048100       27.524154
      0.89077801       27.612806
      0.89107502       27.467529
      0.89137203       27.431676
      0.89166898       27.693958
      0.89196599       27.663819
      0.89226300       27.040833
      0.89256102       27.244775
      0.89285898       27.404939
      0.89315599       27.340994
      0.89345300       27.380808
      0.89375198       27.930278
      0.89404899       27.936995
      0.89434701       27.935488
      0.89464498       26.936064
      0.89494300       27.220068
      0.89524198       27.813505
      0.89554000       28.166070
      0.89583898       28.064337
      0.89613801       28.086080
      0.89643598       27.987458
      0.89673501       27.917439
      0.89703399       27.846031
      0.89733303       28.330093
      0.89763200       28.032603
      0.89793098       27.367714
      0.89823103       28.086407
      0.89853001       28.390735
      0.89882898       28.137552
      0.89912897       28.095956
      0.89942902       28.406531
      0.89972800       28.256621
      0.90002799       28.341081
      0.90032798       26.550874
      0.90062898       28.644901
      0.90092897       28.536984
      0.90122998       27.173428
      0.90153003       27.196776
      0.90183002       27.492393
      0.90213102       28.496324
      0.90243101       28.081227
      0.90273201       28.547543
      0.90303302       28.604301
      0.90333402       28.722722
      0.90363598       29.036017
      0.90393698       28.643854
      0.90423799       29.092589
      0.90453899       29.117894
      0.90484101       29.100190
      0.90514201       29.147896
      0.90544498       28.893345
      0.90574598       29.211014
      0.90604699       29.117240
      0.90635002       28.402581
      0.90665197       29.231675
      0.90695399       29.273910
      0.90725601       29.102651
      0.90755898       29.414469
      0.90786099       29.447201
      0.90816402       28.295353
      0.90846699       29.548421
      0.90877002       29.289250
      0.90907300       26.738691
      0.90937603       29.182135
      0.90967900       28.836875
      0.90998203       29.585899
      0.91028500       28.988726
      0.91058898       29.291171
      0.91089201       29.188350
      0.91119599       29.459679
      0.91149998       29.136672
      0.91180301       29.668382
      0.91210699       28.673901
      0.91241097       29.937451
      0.91271502       29.615995
      0.91302001       30.016961
      0.91332400       30.005333
      0.91362798       30.040837
      0.91393298       29.958599
      0.91423798       29.145996
      0.91454202       29.275494
      0.91484702       29.272514
      0.91515201       29.336800
      0.91545701       29.909075
      0.91576201       29.436033
      0.91606802       29.778208
      0.91637301       30.020222
      0.91667801       29.549538
      0.91698402       29.010423
      0.91728997       29.161619
      0.91759598       28.474987
      0.91790098       29.790716
      0.91820699       29.670926
      0.91851300       29.478503
      0.91881901       29.913054
      0.91912597       29.449265
      0.91943198       29.488648
      0.91973901       29.994039
      0.92004502       29.149749
      0.92035198       29.850008
      0.92065901       29.627492
      0.92096603       29.697140
      0.92127299       28.800802
      0.92158002       29.463672
      0.92188698       29.438403
      0.92219400       29.523478
      0.92250198       30.952760
      0.92280900       29.155501
      0.92311698       29.519992
      0.92342401       29.345068
      0.92373198       30.487645
      0.92404002       29.987049
      0.92434800       29.813043
      0.92465597       30.757688
      0.92496401       29.769529
      0.92527300       30.321565
      0.92558098       30.839209
      0.92589003       28.948095
      0.92619801       29.443021
      0.92650700       29.997672
      0.92681599       31.127752
      0.92712498       31.176822
      0.92743403       30.196203
      0.92774302       31.408819
      0.92805201       30.542172
      0.92836201       30.639568
      0.92867100       31.820422
      0.92898101       30.383557
      0.92929000       30.003855
      0.92960000       31.177178
      0.92991000       30.325338
      0.93022001       31.730629
      0.93053001       31.430170
      0.93084002       30.554473
      0.93115002       31.993902
      0.93146098       31.247808
      0.93177098       31.668358
      0.93208200       30.824543
      0.93239301       31.474819
      0.93270302       31.584650
      0.93301398       31.188682
      0.93332499       32.441440
      0.93363601       30.968611
      0.93394798       31.987435
      0.93425900       32.038802
      0.93457001       31.919110
      0.93488199       31.817226
      0.93519300       31.173393
      0.93550599       32.363066
      0.93581700       31.412153
      0.93612897       31.463266
      0.93644100       31.272650
      0.93675297       32.237009
      0.93706501       31.766169
      0.93737799       32.077892
      0.93769002       31.966307
      0.93800300       32.611431
      0.93831599       31.657940
      0.93862802       31.953281
      0.93894100       32.341160
      0.93925399       32.483508
      0.93956703       31.829358
      0.93988001       31.808864
      0.94019401       32.730288
      0.94050699       32.186138
      0.94081998       31.455827
      0.94113398       32.709048
      0.94144797       31.386920
      0.94176102       30.153336
      0.94207501       32.305923
      0.94238901       32.253284
      0.94270402       32.464860
      0.94301802       33.135503
      0.94333202       31.851889
      0.94364703       32.292095
      0.94396198       32.318457
      0.94427598       32.107091
      0.94459099       32.403549
      0.94490600       32.044559
      0.94522101       32.875237
      0.94553602       32.675812
      0.94585103       33.010226
      0.94616598       33.122994
      0.94648099       32.479762
      0.94679701       33.416234
      0.94711298       33.094056
      0.94742799       33.826858
      0.94774401       33.412568
      0.94805998       32.974741
      0.94837600       33.394197
      0.94869298       33.361901
      0.94900799       32.863168
      0.94932503       34.260493
      0.94964099       33.220240
      0.94995803       33.803547
      0.95027399       33.821486
      0.95059103       33.377634
      0.95090801       33.949000
      0.95122498       33.136158
      0.95154202       33.952341
      0.95185900       34.384615
      0.95217699       33.070037
      0.95249403       34.761162
      0.95281100       33.649242
      0.95312899       33.803852
      0.95344698       34.907800
      0.95376402       33.186362
      0.95408201       34.851653
      0.95440000       34.535777
      0.95471799       32.298543
      0.95503700       34.051993
      0.95535499       34.233419
      0.95567399       34.428354
      0.95599198       33.985376
      0.95631099       34.356053
      0.95662999       34.508976
      0.95694900       35.070338
      0.95726800       33.772486
      0.95758700       33.702964
      0.95790601       35.015276
      0.95822501       34.450527
      0.95854402       35.130154
      0.95886397       34.570241
      0.95918298       35.061078
      0.95950300       35.553719
      0.95982301       34.667955
      0.96014398       33.979782
      0.96046299       35.369091
      0.96078300       34.699766
      0.96110302       34.814150
      0.96142399       35.847851
      0.96174401       35.516006
      0.96206498       35.458588
      0.96238601       35.176225
      0.96270698       34.909450
      0.96302801       35.199633
      0.96334898       36.134465
      0.96367002       34.988936
      0.96399099       33.508096
      0.96431202       36.023640
      0.96463299       35.735859
      0.96495599       34.501528
      0.96527702       36.016296
      0.96559799       35.221120
      0.96592098       35.588765
      0.96624202       35.473284
      0.96656400       35.401566
      0.96688598       36.062328
      0.96720898       35.860749
      0.96753198       36.104461
      0.96785402       34.331285
      0.96817601       36.511555
      0.96849900       36.226485
      0.96882200       36.444928
      0.96914500       35.573961
      0.96946800       35.949253
      0.96979100       36.537263
      0.97011399       36.861614
      0.97043800       36.388860
      0.97076100       35.036252
      0.97108501       37.121878
      0.97140801       37.120196
      0.97173202       36.557310
      0.97205698       36.135429
      0.97237998       36.747058
      0.97270399       37.160725
      0.97302800       35.602077
      0.97335303       36.950864
      0.97367698       36.496225
      0.97400200       35.805185
      0.97432703       37.472625
      0.97465199       35.878497
      0.97497600       36.239089
      0.97530198       37.575386
      0.97562701       36.931451
      0.97595203       37.371587
      0.97627699       37.390045
      0.97660202       36.563973
      0.97692800       37.980723
      0.97725302       36.256074
      0.97757900       37.717542
      0.97790498       38.075960
      0.97823101       37.295055
