wavelength       flux
  microns         mJy
      
      0.80013400       11.206780
      0.80040097       11.949084
      0.80066800       11.932523
      0.80093497       11.859023
      0.80120200       12.227352
      0.80146903       12.030773
      0.80173600       12.372052
      0.80200303       12.112860
      0.80227000       12.144423
      0.80253798       12.378589
      0.80280501       11.588816
      0.80307299       11.612255
      0.80334002       12.376346
      0.80360800       12.024473
      0.80387598       12.447828
      0.80414498       12.340166
      0.80441201       12.432891
      0.80467999       11.995664
      0.80494899       11.132533
      0.80521703       12.105925
      0.80548501       12.440182
      0.80575401       12.232732
      0.80602199       12.600451
      0.80629098       12.409789
      0.80655998       12.341636
      0.80682898       12.514032
      0.80709797       12.149095
      0.80736703       11.689660
      0.80763602       11.848419
      0.80790502       12.576974
      0.80817401       12.356833
      0.80844402       12.296639
      0.80871302       11.939480
      0.80898303       12.849549
      0.80925298       11.916316
      0.80952299       11.597960
      0.80979198       12.326938
      0.81006199       12.219497
      0.81033200       12.535870
      0.81060201       12.345663
      0.81087202       12.426229
      0.81114298       12.242907
      0.81141299       12.750202
      0.81168300       12.173601
      0.81195402       12.355712
      0.81222498       12.744455
      0.81249499       12.918525
      0.81276602       12.522425
      0.81303698       12.741065
      0.81330800       12.570329
      0.81357902       13.099522
      0.81384999       12.614162
      0.81412202       12.752263
      0.81439298       12.800749
      0.81466401       12.998221
      0.81493598       12.970776
      0.81520802       12.213163
      0.81547898       12.985329
      0.81575102       12.867722
      0.81602299       13.197368
      0.81629598       12.575234
      0.81656700       12.996874
      0.81683898       13.167954
      0.81711203       12.970586
      0.81738400       13.250273
      0.81765699       12.961260
      0.81792998       13.338973
      0.81820202       12.621105
      0.81847501       12.603036
      0.81874698       13.290168
      0.81901997       12.625355
      0.81929302       13.798601
      0.81956702       12.430554
      0.81984001       12.503141
      0.82011300       12.992862
      0.82038599       13.266378
      0.82066000       12.628523
      0.82093298       12.946332
      0.82120699       13.411433
      0.82147998       12.656343
      0.82175398       13.366945
      0.82202798       13.854430
      0.82230198       12.441140
      0.82257599       13.597014
      0.82284999       13.946701
      0.82312500       13.458592
      0.82339901       12.897003
      0.82367402       13.585609
      0.82394898       13.693191
      0.82422298       13.532768
      0.82449800       13.347927
      0.82477301       14.126043
      0.82504803       13.435151
      0.82532299       13.677600
      0.82559800       13.837912
      0.82587302       13.650165
      0.82614797       14.031234
      0.82642299       14.142869
      0.82669902       13.936329
      0.82697397       13.660694
      0.82725000       14.097852
      0.82752699       13.655658
      0.82780200       13.880649
      0.82807702       14.178627
      0.82835299       14.014582
      0.82862997       14.249350
      0.82890600       13.819802
      0.82918298       14.104421
      0.82945901       13.853907
      0.82973498       13.940867
      0.83001202       13.685550
      0.83028901       14.280530
      0.83056498       14.023606
      0.83084202       13.373683
      0.83111900       13.612420
      0.83139598       13.754104
      0.83167398       14.193432
      0.83195102       14.187814
      0.83222800       13.905730
      0.83250499       14.400078
      0.83278298       14.040029
      0.83306098       13.278070
      0.83333802       13.610197
      0.83361602       13.806864
      0.83389300       14.200496
      0.83417100       14.124855
      0.83444899       14.271417
      0.83472800       13.971921
      0.83500600       13.559033
      0.83528399       14.794419
      0.83556300       14.264552
      0.83584100       14.668136
      0.83612001       14.452204
      0.83639902       14.509153
      0.83667803       13.253542
      0.83695698       15.102499
      0.83723497       14.337795
      0.83751500       14.740373
      0.83779401       14.998328
      0.83807302       14.237682
      0.83835298       14.222654
      0.83863199       14.153854
      0.83891100       12.980197
      0.83919102       14.344816
      0.83947098       15.375178
      0.83974999       15.212395
      0.84003001       14.288238
      0.84030998       14.474159
      0.84059000       15.068984
      0.84087002       15.146185
      0.84115100       15.324119
      0.84143102       14.455326
      0.84171200       15.371095
      0.84199202       14.528174
      0.84227300       15.007209
      0.84255397       14.576563
      0.84283501       14.089421
      0.84311599       15.627958
      0.84339702       15.439861
      0.84367800       13.512051
      0.84395897       15.608054
      0.84424001       14.411927
      0.84452200       15.566007
      0.84480298       15.140126
      0.84508502       15.398295
      0.84536600       15.468583
      0.84564799       15.710718
      0.84592998       15.208361
      0.84621298       15.610210
      0.84649402       15.772969
      0.84677601       15.297841
      0.84705800       14.129157
      0.84734100       15.313319
      0.84762299       16.110192
      0.84790599       15.850504
      0.84818900       15.708181
      0.84847099       15.420912
      0.84875399       15.998703
      0.84903699       15.860975
      0.84931999       16.074452
      0.84960300       15.947687
      0.84988600       13.468402
      0.85017002       13.383976
      0.85045302       15.566185
      0.85073602       15.823847
      0.85101998       16.295121
      0.85130399       16.151796
      0.85158700       14.656567
      0.85187101       15.407901
      0.85215598       15.412798
      0.85243899       16.191498
      0.85272300       16.153587
      0.85300797       15.564889
      0.85329199       16.074281
      0.85357702       16.221931
      0.85386097       15.421064
      0.85414600       14.199709
      0.85443097       9.2843440
      0.85471499       14.209250
      0.85500002       15.188543
      0.85528499       16.201740
      0.85557002       16.623871
      0.85585600       15.981632
      0.85614097       16.633942
      0.85642600       16.421864
      0.85671198       16.452285
      0.85699701       16.399917
      0.85728300       16.690209
      0.85756898       16.492064
      0.85785401       16.621340
      0.85813999       16.996557
      0.85842597       16.008881
      0.85871202       16.635807
      0.85899901       16.774653
      0.85928500       16.828448
      0.85957199       16.831414
      0.85985798       16.737234
      0.86014497       16.661784
      0.86043203       16.839229
      0.86071801       16.458696
      0.86100501       16.997141
      0.86129200       15.889308
      0.86157900       17.147108
      0.86186701       17.037155
      0.86215401       17.160150
      0.86244100       16.496565
      0.86272901       17.191088
      0.86301601       17.250373
      0.86330402       17.228367
      0.86359102       17.178217
      0.86387998       17.202190
      0.86416698       17.200951
      0.86445498       16.941655
      0.86474299       17.660805
      0.86503202       16.619465
      0.86532098       17.536805
      0.86560899       17.208893
      0.86589700       17.265335
      0.86618602       15.747415
      0.86647499       10.310860
      0.86676401       16.259512
      0.86705297       17.164728
      0.86734200       17.262442
      0.86763102       15.853156
      0.86791998       17.562442
      0.86820900       16.839369
      0.86849898       17.231968
      0.86878800       17.589273
      0.86907798       14.589909
      0.86936700       17.256638
      0.86965698       17.666085
      0.86994702       18.178359
      0.87023699       16.645164
      0.87052798       17.736706
      0.87081701       18.081429
      0.87110698       18.057500
      0.87139797       16.869715
      0.87168801       17.849237
      0.87197900       17.768550
      0.87226897       18.132509
      0.87256002       18.158054
      0.87285101       18.445606
      0.87314200       17.704220
      0.87343299       18.470977
      0.87372398       17.279469
      0.87401497       18.022503
      0.87430698       18.341038
      0.87459898       18.019169
      0.87489003       18.250992
      0.87518102       18.247029
      0.87547302       17.768268
      0.87576598       18.732356
      0.87605798       17.601184
      0.87634999       18.855860
      0.87664098       18.025615
      0.87693298       18.245468
      0.87722498       18.639280
      0.87751800       17.515904
      0.87781000       18.692977
      0.87810302       18.637111
      0.87839597       19.041679
      0.87868899       18.706467
      0.87898201       18.916588
      0.87927502       18.313942
      0.87956798       18.269476
      0.87986100       18.843601
      0.88015401       19.100666
      0.88044798       19.140454
      0.88074100       17.994399
      0.88103402       16.425698
      0.88132799       19.073997
      0.88162202       19.247803
      0.88191599       19.351186
      0.88220900       18.801499
      0.88250399       18.847608
      0.88279802       17.660096
      0.88309199       19.415273
      0.88338602       19.655917
      0.88368100       19.124875
      0.88397598       18.353565
      0.88427001       19.103258
      0.88456500       19.477423
      0.88485998       19.219600
      0.88515502       19.665356
      0.88545001       19.753424
      0.88574499       19.804099
      0.88604099       19.775361
      0.88633603       19.476101
      0.88663101       18.985342
      0.88692701       18.924397
      0.88722199       19.547978
      0.88751799       20.044804
      0.88781399       19.551650
      0.88810998       19.325328
      0.88840598       20.023143
      0.88870198       19.946026
      0.88899899       20.162415
      0.88929498       20.065562
      0.88959098       19.836973
      0.88988698       20.153494
      0.89018399       20.230866
      0.89048100       20.264762
      0.89077801       20.373422
      0.89107502       20.104349
      0.89137203       20.222546
      0.89166898       20.469580
      0.89196599       20.387420
      0.89226300       19.663360
      0.89256102       19.888544
      0.89285898       20.095380
      0.89315599       19.999116
      0.89345300       19.958532
      0.89375198       20.708339
      0.89404899       20.706502
      0.89434701       20.694977
      0.89464498       19.634713
      0.89494300       19.850455
      0.89524198       20.498127
      0.89554000       20.999747
      0.89583898       20.825009
      0.89613801       20.813460
      0.89643598       20.668303
      0.89673501       20.633826
      0.89703399       20.400120
      0.89733303       21.129021
      0.89763200       20.743682
      0.89793098       20.093192
      0.89823103       20.820202
      0.89853001       21.141576
      0.89882898       20.813134
      0.89912897       20.672095
      0.89942902       21.121306
      0.89972800       20.905050
      0.90002799       21.065655
      0.90032798       19.610527
      0.90062898       21.433263
      0.90092897       21.274860
      0.90122998       19.796066
      0.90153003       20.058657
      0.90183002       20.352705
      0.90213102       21.252514
      0.90243101       20.722410
      0.90273201       21.339855
      0.90303302       21.277685
      0.90333402       21.484694
      0.90363598       21.905379
      0.90393698       21.233968
      0.90423799       21.961131
      0.90453899       21.972757
      0.90484101       21.897812
      0.90514201       21.973416
      0.90544498       21.567218
      0.90574598       22.053939
      0.90604699       21.864756
      0.90635002       21.104828
      0.90665197       22.057473
      0.90695399       22.049234
      0.90725601       21.849772
      0.90755898       22.264229
      0.90786099       22.301977
      0.90816402       20.965775
      0.90846699       22.427693
      0.90877002       21.980004
      0.90907300       19.849048
      0.90937603       21.827064
      0.90967900       21.589954
      0.90998203       22.398434
      0.91028500       21.577848
      0.91058898       21.992865
      0.91089201       21.757565
      0.91119599       22.088251
      0.91149998       21.794992
      0.91180301       22.372108
      0.91210699       21.471753
      0.91241097       22.805384
      0.91271502       22.322853
      0.91302001       22.897686
      0.91332400       22.849636
      0.91362798       22.889881
      0.91393298       22.705366
      0.91423798       21.671908
      0.91454202       21.761801
      0.91484702       21.785443
      0.91515201       21.919015
      0.91545701       22.706607
      0.91576201       21.926829
      0.91606802       22.459747
      0.91637301       22.759597
      0.91667801       22.163261
      0.91698402       21.324829
      0.91728997       21.551552
      0.91759598       20.748462
      0.91790098       22.409431
      0.91820699       22.216876
      0.91851300       22.021678
      0.91881901       22.572893
      0.91912597       21.960386
      0.91943198       22.066198
      0.91973901       22.696745
      0.92004502       21.592880
      0.92035198       22.431826
      0.92065901       22.210001
      0.92096603       22.268377
      0.92127299       21.250858
      0.92158002       21.969453
      0.92188698       22.023388
      0.92219400       22.056656
      0.92250198       23.863002
      0.92280900       21.632947
      0.92311698       22.501035
      0.92342401       21.897545
      0.92373198       23.246451
      0.92404002       22.642800
      0.92434800       22.226267
      0.92465597       23.454052
      0.92496401       22.332679
      0.92527300       23.033031
      0.92558098       23.634706
      0.92589003       21.691647
      0.92619801       22.044529
      0.92650700       22.602677
      0.92681599       23.895299
      0.92712498       24.087891
      0.92743403       22.835171
      0.92774302       24.301989
      0.92805201       23.142324
      0.92836201       23.154026
      0.92867100       24.818843
      0.92898101       22.961878
      0.92929000       22.716634
      0.92960000       23.866073
      0.92991000       22.803212
      0.93022001       24.662820
      0.93053001       24.274162
      0.93084002       23.137450
      0.93115002       24.972902
      0.93146098       24.012161
      0.93177098       24.619785
      0.93208200       23.403414
      0.93239301       24.331888
      0.93270302       24.373398
      0.93301398       23.729540
      0.93332499       25.558539
      0.93363601       23.711893
      0.93394798       24.872191
      0.93425900       24.983624
      0.93457001       24.817269
      0.93488199       24.750221
      0.93519300       23.914104
      0.93550599       25.351935
      0.93581700       24.243055
      0.93612897       24.327243
      0.93644100       24.115065
      0.93675297       25.064317
      0.93706501       24.626748
      0.93737799       24.852938
      0.93769002       24.829585
      0.93800300       25.565574
      0.93831599       24.375748
      0.93862802       24.640297
      0.93894100       25.138238
      0.93925399       25.363586
      0.93956703       24.583246
      0.93988001       24.352289
      0.94019401       25.633948
      0.94050699       24.950254
      0.94081998       24.128418
      0.94113398       25.516330
      0.94144797       23.933979
      0.94176102       23.050097
      0.94207501       25.020978
      0.94238901       24.934992
      0.94270402       25.193859
      0.94301802       26.094365
      0.94333202       24.339616
      0.94364703       25.092122
      0.94396198       24.988175
      0.94427598       24.868285
      0.94459099       25.243406
      0.94490600       24.848213
      0.94522101       25.740239
      0.94553602       25.420799
      0.94585103       25.768328
      0.94616598       26.058298
      0.94648099       25.163091
      0.94679701       26.334939
      0.94711298       25.933223
      0.94742799       26.974299
      0.94774401       26.418825
      0.94805998       25.732401
      0.94837600       26.321759
      0.94869298       26.191101
      0.94900799       25.633553
      0.94932503       27.499267
      0.94964099       26.082359
      0.94995803       26.766269
      0.95027399       26.864557
      0.95059103       26.185240
      0.95090801       26.950174
      0.95122498       25.755856
      0.95154202       26.944114
      0.95185900       27.562096
      0.95217699       25.927544
      0.95249403       28.099515
      0.95281100       26.563418
      0.95312899       26.732825
      0.95344698       28.283644
      0.95376402       25.772203
      0.95408201       28.166770
      0.95440000       27.663841
      0.95471799       25.273796
      0.95503700       27.086855
      0.95535499       27.217251
      0.95567399       27.514344
      0.95599198       27.007849
      0.95631099       27.443859
      0.95662999       27.559266
      0.95694900       28.374210
      0.95726800       26.774650
      0.95758700       26.599289
      0.95790601       28.147287
      0.95822501       27.470306
      0.95854402       28.328415
      0.95886397       27.573065
      0.95918298       28.294738
      0.95950300       28.975799
      0.95982301       27.767697
      0.96014398       26.954566
      0.96046299       28.634699
      0.96078300       27.650585
      0.96110302       27.688285
      0.96142399       29.349747
      0.96174401       28.876190
      0.96206498       28.696374
      0.96238601       28.415725
      0.96270698       27.844370
      0.96302801       28.429149
      0.96334898       29.684276
      0.96367002       28.242091
      0.96399099       26.563174
      0.96431202       29.413718
      0.96463299       29.076044
      0.96495599       27.508352
      0.96527702       29.305126
      0.96559799       28.471454
      0.96592098       28.778300
      0.96624202       28.656023
      0.96656400       28.400267
      0.96688598       29.408862
      0.96720898       29.375117
      0.96753198       29.449000
      0.96785402       27.476274
      0.96817601       29.942728
      0.96849900       29.582408
      0.96882200       29.928659
      0.96914500       28.838487
      0.96946800       29.105193
      0.96979100       29.953856
      0.97011399       30.386974
      0.97043800       29.675122
      0.97076100       28.352180
      0.97108501       30.835680
      0.97140801       30.799803
      0.97173202       29.907519
      0.97205698       29.331229
      0.97237998       30.210558
      0.97270399       30.764458
      0.97302800       28.894981
      0.97335303       30.372388
      0.97367698       29.943941
      0.97400200       29.053108
      0.97432703       31.222915
      0.97465199       29.252326
      0.97497600       29.201014
      0.97530198       31.317603
      0.97562701       30.544329
      0.97595203       30.939803
      0.97627699       30.926839
      0.97660202       29.994866
      0.97692800       31.861486
      0.97725302       29.428292
      0.97757900       31.383435
      0.97790498       31.962217
      0.97823101       30.712519
