wavelength       flux
  microns         mJy
      
      0.80013400       288.64664
      0.80040097       307.63866
      0.80066800       307.08537
      0.80093497       305.06784
      0.80120200       314.41316
      0.80146903       309.23065
      0.80173600       317.87139
      0.80200303       311.08349
      0.80227000       311.76547
      0.80253798       317.64508
      0.80280501       297.25613
      0.80307299       297.73388
      0.80334002       317.19390
      0.80360800       308.04805
      0.80387598       318.76167
      0.80414498       315.87311
      0.80441201       318.11534
      0.80467999       306.80096
      0.80494899       284.60716
      0.80521703       309.36390
      0.80548501       317.77419
      0.80575401       312.34492
      0.80602199       321.60081
      0.80629098       316.60285
      0.80655998       314.73312
      0.80682898       318.99693
      0.80709797       309.56540
      0.80736703       297.73473
      0.80763602       301.65295
      0.80790502       320.06820
      0.80817401       314.33514
      0.80844402       312.67334
      0.80871302       303.46534
      0.80898303       326.46015
      0.80925298       302.62379
      0.80952299       294.41587
      0.80979198       312.79102
      0.81006199       309.93525
      0.81033200       317.82698
      0.81060201       312.87404
      0.81087202       314.78431
      0.81114298       310.01053
      0.81141299       322.72121
      0.81168300       307.99810
      0.81195402       312.47466
      0.81222498       322.17089
      0.81249499       326.43480
      0.81276602       316.29344
      0.81303698       321.68110
      0.81330800       317.23730
      0.81357902       330.45395
      0.81384999       318.07691
      0.81412202       321.42394
      0.81439298       322.51081
      0.81466401       327.34881
      0.81493598       326.52032
      0.81520802       307.31924
      0.81547898       326.61233
      0.81575102       323.51804
      0.81602299       331.66635
      0.81629598       315.89809
      0.81656700       326.35302
      0.81683898       330.50985
      0.81711203       325.41860
      0.81738400       332.29593
      0.81765699       324.91065
      0.81792998       334.23796
      0.81820202       316.11717
      0.81847501       315.53138
      0.81874698       332.59463
      0.81901997       315.82390
      0.81929302       345.02685
      0.81956702       310.68802
      0.81984001       312.37025
      0.82011300       324.46805
      0.82038599       331.15879
      0.82066000       315.10287
      0.82093298       322.89643
      0.82120699       334.35481
      0.82147998       315.39679
      0.82175398       332.96395
      0.82202798       344.96080
      0.82230198       309.64015
      0.82257599       338.26458
      0.82284999       346.81716
      0.82312500       334.53685
      0.82339901       320.44171
      0.82367402       337.40736
      0.82394898       339.93481
      0.82422298       335.80981
      0.82449800       331.08233
      0.82477301       350.23363
      0.82504803       332.96248
      0.82532299       338.82695
      0.82559800       342.65251
      0.82587302       337.85976
      0.82614797       347.14412
      0.82642299       349.75725
      0.82669902       344.50246
      0.82697397       337.54528
      0.82725000       348.19842
      0.82752699       337.13230
      0.82780200       342.54126
      0.82807702       349.74586
      0.82835299       345.55174
      0.82862997       351.18997
      0.82890600       340.45792
      0.82918298       347.32083
      0.82945901       341.00649
      0.82973498       343.00046
      0.83001202       336.57432
      0.83028901       351.05649
      0.83056498       344.59353
      0.83084202       328.48265
      0.83111900       334.20325
      0.83139598       337.53712
      0.83167398       348.16895
      0.83195102       347.88196
      0.83222800       340.81944
      0.83250499       352.78425
      0.83278298       343.81577
      0.83306098       325.01701
      0.83333802       333.00392
      0.83361602       337.67060
      0.83389300       347.14886
      0.83417100       345.15128
      0.83444899       348.58279
      0.83472800       341.12027
      0.83500600       330.89741
      0.83528399       360.89093
      0.83556300       347.81533
      0.83584100       357.50225
      0.83612001       352.08746
      0.83639902       353.32244
      0.83667803       322.60706
      0.83695698       367.45410
      0.83723497       348.69848
      0.83751500       358.33405
      0.83779401       364.44761
      0.83807302       345.81526
      0.83835298       345.30067
      0.83863199       343.48205
      0.83891100       314.86427
      0.83919102       347.81553
      0.83947098       372.63705
      0.83974999       368.53285
      0.84003001       345.99450
      0.84030998       350.34492
      0.84059000       364.58460
      0.84087002       366.29379
      0.84115100       370.43593
      0.84143102       349.28296
      0.84171200       371.24922
      0.84199202       350.73866
      0.84227300       362.14616
      0.84255397       351.60128
      0.84283501       339.70325
      0.84311599       376.63455
      0.84339702       371.93964
      0.84367800       325.35807
      0.84395897       375.66472
      0.84424001       346.72480
      0.84452200       374.32669
      0.84480298       363.92699
      0.84508502       369.97129
      0.84536600       371.49867
      0.84564799       377.14938
      0.84592998       364.93064
      0.84621298       374.40921
      0.84649402       378.14856
      0.84677601       366.59765
      0.84705800       338.44370
      0.84734100       366.64815
      0.84762299       385.55953
      0.84790599       379.17864
      0.84818900       375.60944
      0.84847099       368.57961
      0.84875399       382.22221
      0.84903699       378.76605
      0.84931999       383.69598
      0.84960300       380.50346
      0.84988600       321.20839
      0.85017002       319.05481
      0.85045302       370.91317
      0.85073602       376.88776
      0.85101998       387.94195
      0.85130399       384.36109
      0.85158700       348.62683
      0.85187101       366.33740
      0.85215598       366.29235
      0.85243899       384.63013
      0.85272300       383.56102
      0.85300797       369.41969
      0.85329199       381.34229
      0.85357702       384.67541
      0.85386097       365.52368
      0.85414600       336.42575
      0.85443097       219.87190
      0.85471499       336.35566
      0.85500002       359.37879
      0.85528499       383.18317
      0.85557002       392.99367
      0.85585600       377.64384
      0.85614097       392.88464
      0.85642600       387.70456
      0.85671198       388.25111
      0.85699701       386.84462
      0.85728300       393.51810
      0.85756898       388.67416
      0.85785401       391.54835
      0.85813999       400.21036
      0.85842597       376.78720
      0.85871202       391.36958
      0.85899901       394.46096
      0.85928500       395.55087
      0.85957199       395.44502
      0.85985798       393.05840
      0.86014497       391.11298
      0.86043203       395.10286
      0.86071801       386.00346
      0.86100501       398.45472
      0.86129200       372.31915
      0.86157900       401.61359
      0.86186701       398.86067
      0.86215401       401.56189
      0.86244100       385.86212
      0.86272901       401.92830
      0.86301601       403.13537
      0.86330402       402.44184
      0.86359102       401.09234
      0.86387998       401.47259
      0.86416698       401.26544
      0.86445498       395.04051
      0.86474299       411.62622
      0.86503202       387.18227
      0.86532098       408.37092
      0.86560899       400.55660
      0.86589700       401.69145
      0.86618602       366.21196
      0.86647499       239.67583
      0.86676401       377.78315
      0.86705297       398.63746
      0.86734200       400.72756
      0.86763102       367.84811
      0.86791998       407.32758
      0.86820900       390.38268
      0.86849898       399.30506
      0.86878800       407.40253
      0.86907798       337.77968
      0.86936700       399.34032
      0.86965698       408.63226
      0.86994702       420.29286
      0.87023699       384.67219
      0.87052798       409.71342
      0.87081701       417.48984
      0.87110698       416.75036
      0.87139797       389.16212
      0.87168801       411.57382
      0.87197900       409.52905
      0.87226897       417.73022
      0.87256002       418.13042
      0.87285101       424.56079
      0.87314200       407.31327
      0.87343299       424.76239
      0.87372398       397.18336
      0.87401497       414.07628
      0.87430698       421.20458
      0.87459898       413.62594
      0.87489003       418.75891
      0.87518102       418.47949
      0.87547302       407.31561
      0.87576598       429.22181
      0.87605798       403.12056
      0.87634999       431.66157
      0.87664098       412.46933
      0.87693298       417.31153
      0.87722498       426.12635
      0.87751800       400.26273
      0.87781000       426.96763
      0.87810302       425.49875
      0.87839597       434.53825
      0.87868899       426.69517
      0.87898201       431.29270
      0.87927502       417.36327
      0.87956798       416.16141
      0.87986100       429.04501
      0.88015401       434.70101
      0.88044798       435.40857
      0.88074100       409.15253
      0.88103402       373.31452
      0.88132799       433.30673
      0.88162202       437.05618
      0.88191599       439.20408
      0.88220900       426.53466
      0.88250399       427.38578
      0.88279802       400.27586
      0.88309199       439.85800
      0.88338602       445.10727
      0.88368100       432.88442
      0.88397598       415.23655
      0.88427001       432.00127
      0.88456500       440.26188
      0.88485998       434.23598
      0.88515502       444.10444
      0.88545001       445.88981
      0.88574499       446.82971
      0.88604099       445.97736
      0.88633603       439.02791
      0.88663101       427.77015
      0.88692701       426.20184
      0.88722199       440.04490
      0.88751799       451.02231
      0.88781399       439.72482
      0.88810998       434.43574
      0.88840598       449.91662
      0.88870198       447.97879
      0.88899899       452.63086
      0.88929498       450.25038
      0.88959098       444.91749
      0.88988698       451.80975
      0.89018399       453.33593
      0.89048100       453.88695
      0.89077801       456.11120
      0.89107502       449.88066
      0.89137203       452.31778
      0.89166898       457.63282
      0.89196599       455.58696
      0.89226300       439.20490
      0.89256102       444.03000
      0.89285898       448.44114
      0.89315599       446.08791
      0.89345300       444.97821
      0.89375198       461.48179
      0.89404899       461.22912
      0.89434701       460.75993
      0.89464498       436.95239
      0.89494300       441.54997
      0.89524198       455.74595
      0.89554000       466.68364
      0.89583898       462.58631
      0.89613801       462.11607
      0.89643598       458.68184
      0.89673501       457.70509
      0.89703399       452.31175
      0.89733303       468.25627
      0.89763200       459.50392
      0.89793098       444.88888
      0.89823103       460.77198
      0.89853001       467.66820
      0.89882898       460.18990
      0.89912897       456.85942
      0.89942902       466.57052
      0.89972800       461.57998
      0.90002799       464.91035
      0.90032798       432.59548
      0.90062898       472.58395
      0.90092897       468.87356
      0.90122998       436.07966
      0.90153003       441.65912
      0.90183002       447.92588
      0.90213102       467.51131
      0.90243101       455.63862
      0.90273201       468.99659
      0.90303302       467.41250
      0.90333402       471.74022
      0.90363598       480.75270
      0.90393698       465.80049
      0.90423799       481.52798
      0.90453899       481.55861
      0.90484101       479.69199
      0.90514201       481.12409
      0.90544498       472.00887
      0.90574598       482.43631
      0.90604699       478.07524
      0.90635002       461.24331
      0.90665197       481.83799
      0.90695399       481.43317
      0.90725601       476.85522
      0.90755898       485.67284
      0.90786099       486.26930
      0.90816402       456.92068
      0.90846699       488.55205
      0.90877002       478.57572
      0.90907300       431.97550
      0.90937603       474.80058
      0.90967900       469.42271
      0.90998203       486.77301
      0.91028500       468.71998
      0.91058898       477.51050
      0.91089201       472.18041
      0.91119599       479.13172
      0.91149998       472.54811
      0.91180301       484.83358
      0.91210699       465.10296
      0.91241097       493.75884
      0.91271502       483.08443
      0.91302001       495.29049
      0.91332400       494.01890
      0.91362798       494.65641
      0.91393298       490.43768
      0.91423798       467.89417
      0.91454202       469.61401
      0.91484702       469.90260
      0.91515201       472.56074
      0.91545701       489.30984
      0.91576201       472.28335
      0.91606802       483.53306
      0.91637301       489.75745
      0.91667801       476.70005
      0.91698402       458.44973
      0.91728997       463.10472
      0.91759598       445.63671
      0.91790098       481.08421
      0.91820699       476.72477
      0.91851300       472.31277
      0.91881901       483.90577
      0.91912597       470.55169
      0.91943198       472.59526
      0.91973901       485.86923
      0.92004502       462.02010
      0.92035198       479.74307
      0.92065901       474.77352
      0.92096603       475.79544
      0.92127299       453.83925
      0.92158002       468.96293
      0.92188698       469.89109
      0.92219400       470.37766
      0.92250198       508.65737
      0.92280900       460.90306
      0.92311698       479.16985
      0.92342401       466.09701
      0.92373198       494.57330
      0.92404002       481.50119
      0.92434800       472.41835
      0.92465597       498.27754
      0.92496401       474.22826
      0.92527300       488.86630
      0.92558098       501.39772
      0.92589003       459.95686
      0.92619801       467.21697
      0.92650700       478.81747
      0.92681599       505.95883
      0.92712498       509.79315
      0.92743403       483.04988
      0.92774302       513.83294
      0.92805201       489.07952
      0.92836201       489.09227
      0.92867100       524.00857
      0.92898101       484.56948
      0.92929000       479.16492
      0.92960000       503.16891
      0.92991000       480.53027
      0.93022001       519.46852
      0.93053001       511.03722
      0.93084002       486.87284
      0.93115002       525.24374
      0.93146098       504.79406
      0.93177098       517.31969
      0.93208200       491.52448
      0.93239301       510.77888
      0.93270302       511.40496
      0.93301398       497.65612
      0.93332499       535.75609
      0.93363601       496.80785
      0.93394798       520.86681
      0.93425900       522.94886
      0.93457001       519.21698
      0.93488199       517.56439
      0.93519300       499.83952
      0.93550599       529.63576
      0.93581700       506.22643
      0.93612897       507.73931
      0.93644100       503.06808
      0.93675297       522.61833
      0.93706501       513.24689
      0.93737799       517.71020
      0.93769002       516.97427
      0.93800300       532.04053
      0.93831599       507.03389
      0.93862802       512.28950
      0.93894100       522.38898
      0.93925399       526.81695
      0.93956703       510.36158
      0.93988001       505.32222
      0.94019401       531.65911
      0.94050699       517.22845
      0.94081998       499.94949
      0.94113398       528.45081
      0.94144797       495.43934
      0.94176102       476.91178
      0.94207501       517.43833
      0.94238901       515.40992
      0.94270402       520.50700
      0.94301802       538.84984
      0.94333202       502.37016
      0.94364703       517.64960
      0.94396198       515.25412
      0.94427598       512.53312
      0.94459099       520.01099
      0.94490600       511.62082
      0.94522101       529.72928
      0.94553602       522.90054
      0.94585103       529.79090
      0.94616598       535.49183
      0.94648099       516.84358
      0.94679701       540.64886
      0.94711298       532.14168
      0.94742799       553.23451
      0.94774401       541.57725
      0.94805998       527.24797
      0.94837600       539.06045
      0.94869298       536.12168
      0.94900799       524.45342
      0.94932503       562.34934
      0.94964099       533.11349
      0.94995803       546.82423
      0.95027399       548.56409
      0.95059103       534.43065
      0.95090801       549.77306
      0.95122498       525.15200
      0.95154202       549.11087
      0.95185900       561.42966
      0.95217699       527.87475
      0.95249403       571.81501
      0.95281100       540.29096
      0.95312899       543.46929
      0.95344698       574.71424
      0.95376402       523.42598
      0.95408201       571.77777
      0.95440000       561.29224
      0.95471799       512.54676
      0.95503700       549.04420
      0.95535499       551.41597
      0.95567399       557.16017
      0.95599198       546.63488
      0.95631099       555.18572
      0.95662999       557.24549
      0.95694900       573.44038
      0.95726800       540.84684
      0.95758700       537.03942
      0.95790601       568.01296
      0.95822501       554.07820
      0.95854402       571.10449
      0.95886397       555.60150
      0.95918298       569.86232
      0.95950300       583.29018
      0.95982301       558.69431
      0.96014398       542.06475
      0.96046299       575.56869
      0.96078300       555.51252
      0.96110302       555.99469
      0.96142399       589.06525
      0.96174401       579.27403
      0.96206498       575.38098
      0.96238601       569.47103
      0.96270698       557.74392
      0.96302801       569.17478
      0.96334898       594.00851
      0.96367002       564.86848
      0.96399099       531.02498
      0.96431202       587.71843
      0.96463299       580.68296
      0.96495599       549.10006
      0.96527702       584.67548
      0.96559799       567.76083
      0.96592098       573.59311
      0.96624202       570.87239
      0.96656400       565.49577
      0.96688598       585.28703
      0.96720898       584.32334
      0.96753198       585.50063
      0.96785402       546.00728
      0.96817601       594.72435
      0.96849900       587.27412
      0.96882200       593.85120
      0.96914500       571.93403
      0.96946800       576.93514
      0.96979100       593.46123
      0.97011399       601.74174
      0.97043800       587.35073
      0.97076100       560.88599
      0.97108501       609.71096
      0.97140801       608.69748
      0.97173202       590.76713
      0.97205698       579.09245
      0.97237998       596.15541
      0.97270399       606.78149
      0.97302800       569.62360
      0.97335303       598.44772
      0.97367698       589.71002
      0.97400200       571.87880
      0.97432703       614.28024
      0.97465199       575.22172
      0.97497600       573.92493
      0.97530198       615.21477
      0.97562701       599.72266
      0.97595203       607.18238
      0.97627699       606.62312
      0.97660202       588.04698
      0.97692800       624.32720
      0.97725302       576.35878
      0.97757900       614.34100
      0.97790498       625.35546
      0.97823101       600.60145
